#class:dielectric
0.365 1.68
0.40466 1.673
0.43583 1.666
0.47999 1.659
0.48613 1.652
0.488 1.645
0.514 1.638
0.5208 1.631
0.53 1.624
0.54607 1.617
0.5682 1.61
0.58756 1.603
0.58929 1.596
0.6328 1.589
0.64385 1.582
0.6471 1.575
0.65627 1.568
0.6943 1.561
0.70652 1.554
0.7682 1.547
0.8521 1.54
0.89 1.533
1.0139 1.526
1.06 1.519
1.1286 1.512
1.3951 1.505
1.5296 1.498
1.8131 1.491
1.9701 1.484
2.2493 1.477
2.3254 1.47
